IESNA:LM-63-1995
[TEST] 20180117F4
[TESTLAB] LEDVANCE
[TESTDATE] 2018-01-17
[ISSUEDATE] 2018-01-17 13:01:23
[NEARFIELD] 
[LAMPPOSITION] 0,0
[OTHER] EVERFINE GO-2000B_V1 SYSTEM
[MANUFAC] LEDVANCE
[LUMCAT] 4058075728400
[LUMINAIRE] LDVAL STREET LA 150W 730 VS1 LEDV
[LAMP] LED 4000K / CRI >= 70
[OTHER] 
[OTHER] Gamma(deg)    Fz(lm)      Ft(lm)     %Lum    %Lamp
[OTHER]   0- 10       262.05      262.05     1.42     1.42
[OTHER]  10- 20       838.00     1100.04     5.98     5.98
[OTHER]  20- 30      1615.05     2715.10    14.75    14.75
[OTHER]  30- 40      2639.48     5354.58    29.09    29.09
[OTHER]  40- 50      3649.75     9004.33    48.92    48.92
[OTHER]  50- 60      4448.27    13452.60    73.09    73.09
[OTHER]  60- 70      3732.12    17184.71    93.37    93.37
[OTHER]  70- 80      1014.31    18199.03    98.88    98.88
[OTHER]  80- 90        65.46    18264.48    99.23    99.24
[OTHER]  90-100        13.75    18278.23    99.31    99.31
[OTHER] 100-110        18.33    18296.56    99.41    99.41
[OTHER] 110-120        22.75    18319.31    99.53    99.53
[OTHER] 120-130        24.00    18343.31    99.66    99.66
[OTHER] 130-140        21.74    18365.05    99.78    99.78
[OTHER] 140-150        17.50    18382.55    99.88    99.88
[OTHER] 150-160        12.65    18395.20    99.95    99.95
[OTHER] 160-170         7.60    18402.79    99.99    99.99
[OTHER] 170-180         2.52    18405.31   100.00   100.00
[OTHER] 
TILT=NONE
1 18000 1 37 13 1 2 0.200 0.235 0.000
1.000 1 150
0.0    5.0    10.0   15.0   20.0   25.0   30.0   35.0   40.0   45.0   
 50.0   55.0   60.0   65.0   70.0   75.0   80.0   85.0   90.0   95.0   
 100.0  105.0  110.0  115.0  120.0  125.0  130.0  135.0  140.0  145.0  
 150.0  155.0  160.0  165.0  170.0  175.0  180.0  
0.0    30.0   60.0   90.0   120.0  150.0  180.0  210.0  240.0  270.0  
 300.0  330.0  360.0  
2706.75  2881.84  3087.90  3376.52  3785.54  4397.14  4929.09  5735.68  6233.09  6175.22  
 5714.29  4937.22  3519.49  1608.27  620.24   334.18   127.97   21.01    11.79    11.13    
 11.12    11.66    12.60    13.67    14.78    15.92    16.92    17.90    18.86    19.78    
 20.77    21.83    23.01    24.25    25.46    26.68    28.08    
2695.41  2838.48  3038.27  3311.78  3678.95  4264.05  4856.42  5568.87  6243.98  6672.83  
 6569.63  5911.57  4563.93  2030.79  489.91   308.20   153.15   56.39    12.05    10.84    
 10.09    9.85     10.16    10.97    11.95    13.07    14.02    14.79    15.50    16.05    
 16.66    17.35    18.20    19.11    20.00    20.82    28.08    
2684.40  2770.00  2913.46  3139.52  3496.20  3971.10  4611.30  5231.41  5653.95  6364.08  
 7480.00  9066.69  10925.19 10982.44 6208.14  889.40   185.47   63.93    10.05    7.64     
 8.19     9.27     10.87    12.62    14.05    14.80    15.41    16.14    16.54    16.75    
 16.89    17.00    17.21    17.48    17.80    18.05    28.08    
2730.89  2720.74  2774.73  2896.19  3103.06  3385.36  3795.80  4183.31  4471.23  4686.88  
 4982.67  5421.08  6016.74  7030.05  7191.20  4031.28  653.59   80.26    18.50    16.66    
 19.51    23.29    26.27    28.24    29.91    30.56    30.28    29.41    28.60    28.09    
 27.91    27.83    27.69    27.50    27.33    27.24    28.08    
2724.06  2628.08  2589.19  2589.90  2657.93  2760.90  2873.34  3015.16  3111.11  3169.84  
 3141.52  2967.41  2676.13  1619.32  461.01   291.48   144.78   51.55    15.08    16.92    
 22.23    28.39    33.22    36.32    37.59    37.62    38.12    37.78    36.14    34.27    
 32.65    31.62    30.92    30.39    30.02    29.86    28.08    
2714.53  2560.07  2446.91  2370.26  2358.45  2370.18  2381.10  2356.00  2254.34  2201.14  
 2098.27  1944.63  1686.20  992.75   422.25   243.26   112.29   37.16    11.94    12.39    
 14.11    17.69    22.77    28.18    33.18    36.89    38.54    39.17    38.96    38.27    
 37.34    36.28    35.23    34.25    33.35    32.51    28.08    
2706.75  2541.87  2413.46  2328.92  2293.17  2266.48  2236.45  2090.42  2018.88  1979.21  
 1917.73  1861.48  1623.04  1075.42  504.10   251.78   103.57   11.73    10.89    11.93    
 13.99    17.28    21.57    26.24    30.87    34.91    37.57    39.05    39.51    39.15    
 38.41    37.27    35.64    33.76    31.75    29.78    28.08    
2695.41  2566.62  2471.97  2424.70  2434.48  2460.75  2487.44  2475.62  2381.56  2308.75  
 2170.65  1984.70  1581.83  747.41   353.17   217.14   96.72    28.72    8.73     9.53     
 11.50    15.17    20.13    25.15    29.58    33.08    35.08    35.71    35.19    33.87    
 32.13    30.34    28.47    26.65    24.93    23.23    28.08    
2684.40  2638.35  2640.61  2692.03  2800.44  2928.06  3067.43  3225.13  3327.39  3415.36  
 3411.67  3235.24  2876.84  1529.51  425.30   254.23   116.38   33.73    5.69     9.53     
 15.65    21.88    26.09    29.08    30.95    31.12    30.24    28.68    26.75    25.03    
 23.55    22.46    21.52    20.67    19.87    19.10    28.08    
2730.89  2782.29  2898.60  3103.64  3383.86  3733.95  4236.03  4679.76  4949.66  5225.09  
 5628.71  6208.38  6971.72  7954.64  6402.07  2348.40  222.01   53.55    14.84    16.56    
 19.19    22.33    24.61    26.57    27.93    28.11    27.48    26.78    26.35    26.14    
 26.18    26.42    26.57    26.63    26.73    26.93    28.08    
2724.06  2861.99  3065.73  3383.74  3839.39  4417.25  5169.93  5862.20  6440.31  7386.79  
 8751.39  10483.55 11595.08 9547.34  3562.11  392.13   150.92   54.10    12.15    12.67    
 14.31    16.67    19.22    21.65    23.84    25.73    27.16    28.42    29.51    30.38    
 30.95    31.07    30.90    30.64    30.31    30.03    28.08    
2714.53  2890.40  3125.40  3453.31  3904.43  4593.58  5304.62  6060.85  6743.97  7043.16  
 6753.04  5923.02  4359.28  1657.77  465.41   290.47   145.71   52.62    12.95    12.80    
 13.41    14.56    16.03    17.63    19.27    20.95    22.52    23.99    25.26    26.38    
 27.43    28.33    29.12    29.85    30.50    31.12    28.08    
2706.75  2881.84  3087.90  3376.52  3785.54  4397.14  4929.09  5735.68  6233.09  6175.22  
 5714.29  4937.22  3519.49  1608.27  620.24   334.18   127.97   21.01    11.79    11.13    
 11.12    11.66    12.60    13.67    14.78    15.92    16.92    17.90    18.86    19.78    
 20.77    21.83    23.01    24.25    25.46    26.68    28.08    
